**************************************************************
***  MERIS LUT-168: Aerosol transmittance                  ***
***                 for each of AOTs at 560nm [AOT560],    ***
***                 for each of 78 aerosol models [IAER],  ***
***                 & for each of 12 solar angles [SZA]    ***
**************************************************************

Aerosol optical thickness (560nm): AOT560
---------------------------------        

 0.0 0.1 0.2 0.3 0.4 0.5 0.6 0.7 0.8 0.9 1.0 1.1 1.2 1.3 1.4 1.5

12 Gaussian angles (deg): SZA
------------------------     

 2.84 17.64 28.77 36.19 43.61 51.03 58.46 65.88 69.59 73.30 77.01 80.72

Aerosol transmittance: [SZA x AOT560]
---------------------                

Aerosol model #2
 1 0.994267 0.988321 0.982194 0.975894 0.969414 0.962976 0.956283 0.949696 0.942864 0.935916 0.92923 0.922453 0.915513 0.908577 0.901612
 1 0.993713 0.987172 0.980421 0.973522 0.966462 0.959255 0.951899 0.944681 0.937203 0.929614 0.922456 0.914973 0.907465 0.899944 0.892407
 1 0.992545 0.984754 0.976735 0.968479 0.9602 0.951653 0.943223 0.934549 0.925829 0.917022 0.9088 0.900202 0.891632 0.883105 0.87463
 1 0.991146 0.981891 0.97237 0.962667 0.952842 0.942945 0.933014 0.923079 0.913168 0.903302 0.893501 0.88378 0.874151 0.864626 0.855209
 1 0.988837 0.977236 0.965364 0.953357 0.941304 0.929269 0.917304 0.905444 0.893724 0.882161 0.870777 0.859583 0.848591 0.837811 0.827241
 1 0.984985 0.969508 0.953896 0.938333 0.922938 0.907792 0.892951 0.878452 0.864318 0.850566 0.837203 0.82423 0.811645 0.799443 0.787616
 1 0.978075 0.95601 0.934311 0.913218 0.892859 0.873301 0.854568 0.836663 0.819569 0.803266 0.787716 0.772884 0.75874 0.74524 0.732347
 1 0.964723 0.9309 0.89913 0.869557 0.842154 0.816816 0.793403 0.771757 0.751727 0.733157 0.715912 0.699859 0.684884 0.670875 0.657741
 1 0.953254 0.91014 0.871075 0.8359 0.804282 0.775855 0.750249 0.727114 0.706148 0.687066 0.669633 0.65364 0.638905 0.625271 0.612602
 1 0.935748 0.879711 0.83146 0.789969 0.754198 0.723207 0.696188 0.672469 0.65149 0.632795 0.616008 0.600823 0.586991 0.574308 0.56261
 1 0.907451 0.833392 0.774339 0.726886 0.688306 0.656505 0.629898 0.607301 0.58782 0.570785 0.555716 0.542213 0.529982 0.518818 0.508535
 1 0.857725 0.759636 0.690883 0.641205 0.604073 0.575304 0.55224 0.533153 0.516954 0.502877 0.490404 0.479212 0.469032 0.459674 0.451024

