**************************************************************
***  MERIS LUT-168: Aerosol transmittance                  ***
***                 for each of AOTs at 560nm [AOT560],    ***
***                 for each of 78 aerosol models [IAER],  ***
***                 & for each of 12 solar angles [SZA]    ***
**************************************************************

Aerosol optical thickness (560nm): AOT560
---------------------------------        

 0.0 0.1 0.2 0.3 0.4 0.5 0.6 0.7 0.8 0.9 1.0 1.1 1.2 1.3 1.4 1.5

12 Gaussian angles (deg): SZA
------------------------     

 2.84 17.64 28.77 36.19 43.61 51.03 58.46 65.88 69.59 73.30 77.01 80.72

Aerosol transmittance: [SZA x AOT560]
---------------------                

Aerosol model #0
 1 0.994416 0.988643 0.982705 0.976649 0.970454 0.964129 0.957807 0.951322 0.944866 0.93827 0.931596 0.925039 0.918318 0.911689 0.905004
 1 0.993892 0.987552 0.981021 0.974356 0.967539 0.960656 0.953644 0.946617 0.93947 0.932264 0.925134 0.91791 0.910574 0.903242 0.89618
 1 0.992788 0.985268 0.977525 0.96961 0.961563 0.953416 0.945196 0.936924 0.928622 0.920304 0.911986 0.903683 0.895403 0.887158 0.878956
 1 0.991443 0.982514 0.973333 0.963979 0.954508 0.944965 0.935384 0.925796 0.916225 0.906691 0.89721 0.887799 0.87847 0.869233 0.860095
 1 0.989242 0.978048 0.966608 0.955035 0.943409 0.931793 0.920231 0.908761 0.897411 0.886205 0.875159 0.864286 0.853598 0.843103 0.832801
 1 0.985533 0.970623 0.955575 0.940558 0.925683 0.911029 0.896646 0.882574 0.86884 0.855451 0.842419 0.829751 0.817443 0.805494 0.793897
 1 0.978888 0.957622 0.936672 0.916266 0.896526 0.877519 0.859273 0.841794 0.825068 0.809092 0.793825 0.779233 0.765296 0.751968 0.739221
 1 0.96602 0.933352 0.902565 0.873806 0.847064 0.822252 0.799252 0.777932 0.758144 0.73976 0.722645 0.706678 0.691768 0.677793 0.664679
 1 0.954952 0.913233 0.875258 0.840905 0.809896 0.781905 0.756596 0.733663 0.712813 0.693799 0.676382 0.660388 0.645623 0.631941 0.619235
 1 0.938037 0.883655 0.836533 0.795776 0.76045 0.729704 0.702796 0.679094 0.658078 0.639306 0.622426 0.607145 0.59321 0.580432 0.568649
 1 0.910622 0.838411 0.78034 0.73333 0.694874 0.663018 0.63627 0.613493 0.593829 0.576626 0.561388 0.547742 0.535393 0.524117 0.513743
 1 0.862184 0.765788 0.697433 0.647621 0.610149 0.581014 0.55762 0.538272 0.521847 0.507592 0.494992 0.483685 0.473415 0.463995 0.455284
