**************************************************************
***  MERIS LUT-168: Aerosol transmittance                  ***
***                 for each of AOTs at 560nm [AOT560],    ***
***                 for each of 78 aerosol models [IAER],  ***
***                 & for each of 12 solar angles [SZA]    ***
**************************************************************

Aerosol optical thickness (560nm): AOT560
---------------------------------        

 0.0 0.1 0.2 0.3 0.4 0.5 0.6 0.7 0.8 0.9 1.0 1.1 1.2 1.3 1.4 1.5

12 Gaussian angles (deg): SZA
------------------------     

 2.84 17.64 28.77 36.19 43.61 51.03 58.46 65.88 69.59 73.30 77.01 80.72

Aerosol transmittance: [SZA x AOT560]
---------------------                

Aerosol model #4
 1 0.994051 0.987852 0.981472 0.974893 0.968121 0.961436 0.954379 0.94747 0.94032 0.933053 0.926139 0.918911 0.911303 0.904241 0.896849
 1 0.993457 0.986629 0.979528 0.972331 0.964864 0.957448 0.949928 0.941901 0.934515 0.926434 0.918799 0.911081 0.903226 0.895229 0.887276
 1 0.992224 0.984011 0.975613 0.967055 0.958196 0.949113 0.940396 0.931205 0.922444 0.913264 0.904485 0.89539 0.886266 0.877843 0.869021
 1 0.990738 0.981041 0.970975 0.960858 0.950648 0.940294 0.929913 0.919539 0.909198 0.898918 0.888716 0.878605 0.868605 0.858718 0.848964
 1 0.988331 0.976167 0.963735 0.951172 0.938573 0.926009 0.913532 0.901185 0.888999 0.876996 0.865196 0.853612 0.842253 0.831125 0.820234
 1 0.984271 0.968063 0.951735 0.935485 0.919441 0.903688 0.888282 0.873262 0.85865 0.84446 0.830695 0.817358 0.804442 0.79194 0.77984
 1 0.977033 0.953961 0.931338 0.909407 0.8883 0.868079 0.84877 0.830355 0.812831 0.796147 0.780277 0.765175 0.750797 0.737098 0.724035
 1 0.963107 0.927872 0.894929 0.864401 0.836221 0.810284 0.786394 0.764387 0.744082 0.725303 0.707892 0.691748 0.676685 0.662644 0.64947
 1 0.951178 0.906404 0.866065 0.829945 0.79764 0.768722 0.742781 0.719421 0.698295 0.679159 0.661674 0.645698 0.630959 0.617376 0.604727
 1 0.93302 0.875065 0.825535 0.783231 0.746946 0.71563 0.688528 0.664802 0.643825 0.625221 0.608485 0.593419 0.579694 0.567082 0.55548
 1 0.903808 0.827669 0.767469 0.719567 0.680871 0.64913 0.622623 0.600224 0.58094 0.564057 0.549153 0.535752 0.523662 0.512561 0.502379
 1 0.852807 0.752795 0.683642 0.634149 0.597365 0.568963 0.546222 0.527371 0.511392 0.497432 0.48512 0.474035 0.463901 0.454628 0.445994

