**************************************************************
***  MERIS LUT-168: Aerosol transmittance                  ***
***                 for each of AOTs at 560nm [AOT560],    ***
***                 for each of 78 aerosol models [IAER],  ***
***                 & for each of 12 solar angles [SZA]    ***
**************************************************************

Aerosol optical thickness (560nm): AOT560
---------------------------------        

 0.0 0.1 0.2 0.3 0.4 0.5 0.6 0.7 0.8 0.9 1.0 1.1 1.2 1.3 1.4 1.5

12 Gaussian angles (deg): SZA
------------------------     

 2.84 17.64 28.77 36.19 43.61 51.03 58.46 65.88 69.59 73.30 77.01 80.72

Aerosol transmittance: [SZA x AOT560]
---------------------                

Aerosol model #44
 1 0.985843 0.97124 0.956485 0.941623 0.926455 0.911782 0.896898 0.882439 0.867907 0.853841 0.839682 0.826013 0.81209 0.798585 0.785268
 1 0.984541 0.968717 0.952545 0.936639 0.920468 0.904261 0.888959 0.873239 0.857633 0.843178 0.828253 0.813526 0.799964 0.785974 0.772224
 1 0.981998 0.963707 0.945168 0.927083 0.908858 0.890747 0.873768 0.856475 0.839442 0.824121 0.808303 0.792906 0.776517 0.763379 0.749238
 1 0.979104 0.95807 0.936958 0.916549 0.896183 0.876132 0.857763 0.8392 0.82121 0.803792 0.786942 0.770659 0.75492 0.739723 0.72504
 1 0.974736 0.949626 0.925045 0.901175 0.878109 0.855894 0.834544 0.814057 0.794416 0.775598 0.757573 0.740308 0.723771 0.707925 0.692738
 1 0.967821 0.936577 0.906661 0.878207 0.851243 0.825745 0.801658 0.778912 0.757431 0.737137 0.717949 0.699792 0.682595 0.666289 0.650809
 1 0.956543 0.91588 0.878237 0.843527 0.81156 0.782131 0.75499 0.72992 0.70676 0.685257 0.665302 0.646685 0.62929 0.613046 0.597762
 1 0.936972 0.881432 0.832705 0.789878 0.752093 0.718746 0.688983 0.662457 0.638509 0.616931 0.597228 0.579281 0.562721 0.547483 0.533291
 1 0.921462 0.855302 0.799471 0.752204 0.711741 0.677001 0.646717 0.62028 0.596803 0.57596 0.55713 0.540147 0.524573 0.510332 0.497108
 1 0.899186 0.819436 0.755742 0.70434 0.662116 0.62711 0.597443 0.57215 0.550062 0.530733 0.513413 0.497914 0.483736 0.470818 0.458817
 1 0.865452 0.768623 0.697329 0.643598 0.601835 0.56869 0.54145 0.518752 0.499274 0.482181 0.467066 0.453385 0.440985 0.429524 0.418956
 1 0.810274 0.694088 0.619195 0.568246 0.531465 0.503332 0.480884 0.462078 0.445989 0.431722 0.419008 0.407367 0.396747 0.386848 0.377684

