**************************************************************
***  MERIS LUT-168: Aerosol transmittance                  ***
***                 for each of AOTs at 560nm [AOT560],    ***
***                 for each of 78 aerosol models [IAER],  ***
***                 & for each of 12 solar angles [SZA]    ***
**************************************************************

Aerosol optical thickness (560nm): AOT560
---------------------------------        

 0.0 0.1 0.2 0.3 0.4 0.5 0.6 0.7 0.8 0.9 1.0 1.1 1.2 1.3 1.4 1.5

12 Gaussian angles (deg): SZA
------------------------     

 2.84 17.64 28.77 36.19 43.61 51.03 58.46 65.88 69.59 73.30 77.01 80.72

Aerosol transmittance: [SZA x AOT560]
---------------------                

Aerosol model #58
 1 0.988757 0.97706 0.965041 0.952894 0.940617 0.928271 0.915856 0.903558 0.891033 0.879009 0.866832 0.854728 0.842694 0.83146 0.819672
 1 0.987638 0.974823 0.96171 0.948365 0.935172 0.921761 0.908295 0.895363 0.882157 0.869483 0.856706 0.844103 0.831686 0.819468 0.807455
 1 0.985399 0.970386 0.955189 0.939945 0.924746 0.909662 0.894743 0.880028 0.865545 0.851317 0.837358 0.823682 0.810295 0.797202 0.784406
 1 0.982843 0.965366 0.94784 0.930422 0.913213 0.896281 0.879675 0.863428 0.847561 0.832089 0.817019 0.802352 0.788088 0.774226 0.760756
 1 0.978915 0.957744 0.936813 0.916289 0.896273 0.876823 0.857971 0.839733 0.822113 0.805105 0.7887 0.772881 0.757632 0.742932 0.728763
 1 0.972746 0.94598 0.920065 0.895152 0.871302 0.848532 0.826824 0.806151 0.786472 0.767739 0.749904 0.732917 0.716729 0.701293 0.686562
 1 0.96262 0.927147 0.893869 0.862798 0.833858 0.806919 0.781844 0.758487 0.736703 0.716358 0.697327 0.679492 0.662744 0.646996 0.63215
 1 0.944888 0.89538 0.851195 0.811783 0.776585 0.74506 0.716727 0.691164 0.668 0.646916 0.627649 0.609955 0.593635 0.578525 0.564471
 1 0.930689 0.870935 0.819553 0.775245 0.736854 0.703394 0.674041 0.64811 0.625037 0.604357 0.58569 0.56872 0.553188 0.538999 0.525794
 1 0.910071 0.836899 0.777162 0.72798 0.687066 0.652637 0.623307 0.598071 0.576027 0.556562 0.53918 0.523492 0.509195 0.496415 0.484352
 1 0.878359 0.787741 0.719306 0.666624 0.625193 0.591873 0.56446 0.541404 0.521762 0.504529 0.489229 0.475448 0.463177 0.451703 0.441061
 1 0.825324 0.713718 0.639702 0.588314 0.550851 0.522195 0.49928 0.480348 0.464088 0.449813 0.437035 0.425423 0.415061 0.405244 0.396336

