**************************************************************
***  MERIS LUT-168: Aerosol transmittance                  ***
***                 for each of AOTs at 560nm [AOT560],    ***
***                 for each of 78 aerosol models [IAER],  ***
***                 & for each of 12 solar angles [SZA]    ***
**************************************************************

Aerosol optical thickness (560nm): AOT560
---------------------------------        

 0.0 0.1 0.2 0.3 0.4 0.5 0.6 0.7 0.8 0.9 1.0 1.1 1.2 1.3 1.4 1.5

12 Gaussian angles (deg): SZA
------------------------     

 2.84 17.64 28.77 36.19 43.61 51.03 58.46 65.88 69.59 73.30 77.01 80.72

Aerosol transmittance: [SZA x AOT560]
---------------------                

Aerosol model #40
 1 0.988337 0.976222 0.963782 0.95108 0.938491 0.925573 0.912612 0.900057 0.887243 0.874445 0.862225 0.850011 0.837348 0.825037 0.813595
 1 0.987217 0.973913 0.960412 0.946625 0.932638 0.919105 0.905209 0.891279 0.878174 0.864618 0.851133 0.838601 0.825619 0.812771 0.801162
 1 0.984954 0.969389 0.953714 0.937836 0.921864 0.906523 0.890909 0.875383 0.86087 0.845983 0.831281 0.818012 0.804248 0.790803 0.777676
 1 0.982348 0.964242 0.94617 0.928038 0.90997 0.892936 0.875793 0.859034 0.842686 0.826761 0.811268 0.796211 0.781586 0.767388 0.753613
 1 0.978315 0.956466 0.934837 0.913627 0.892952 0.87288 0.85345 0.834679 0.816571 0.79912 0.782314 0.766134 0.750562 0.735574 0.721148
 1 0.971913 0.944249 0.917456 0.891721 0.867122 0.84368 0.82138 0.800187 0.780057 0.760936 0.742769 0.725501 0.709075 0.693439 0.678542
 1 0.961308 0.924567 0.890161 0.858127 0.828385 0.80079 0.775181 0.751415 0.729301 0.708718 0.689497 0.671515 0.654694 0.638872 0.623972
 1 0.942598 0.891243 0.845685 0.805259 0.769398 0.737396 0.708723 0.68309 0.65982 0.638815 0.619553 0.601991 0.585731 0.570763 0.556785
 1 0.92757 0.865645 0.812853 0.767653 0.728704 0.695109 0.665641 0.63986 0.616858 0.596424 0.577898 0.561195 0.545834 0.531801 0.518737
 1 0.905801 0.830178 0.769097 0.71942 0.678306 0.644097 0.614957 0.590093 0.568304 0.549257 0.532144 0.516862 0.50285 0.490115 0.478254
 1 0.872529 0.779442 0.710166 0.657589 0.616472 0.583774 0.556963 0.534383 0.515134 0.498231 0.483324 0.469821 0.457616 0.446321 0.435932
 1 0.817584 0.704256 0.630485 0.580032 0.543519 0.51557 0.493333 0.474723 0.458873 0.444821 0.432355 0.420926 0.410541 0.400837 0.391885

