**************************************************************
***  MERIS LUT-168: Aerosol transmittance                  ***
***                 for each of AOTs at 560nm [AOT560],    ***
***                 for each of 78 aerosol models [IAER],  ***
***                 & for each of 12 solar angles [SZA]    ***
**************************************************************

Aerosol optical thickness (560nm): AOT560
---------------------------------        

 0.0 0.1 0.2 0.3 0.4 0.5 0.6 0.7 0.8 0.9 1.0 1.1 1.2 1.3 1.4 1.5

12 Gaussian angles (deg): SZA
------------------------     

 2.84 17.64 28.77 36.19 43.61 51.03 58.46 65.88 69.59 73.30 77.01 80.72

Aerosol transmittance: [SZA x AOT560]
---------------------                

Aerosol model #68
 1 0.984951 0.969459 0.953721 0.937843 0.922102 0.906401 0.890622 0.875015 0.859508 0.845004 0.830118 0.815424 0.801731 0.787725 0.774618
 1 0.983577 0.966699 0.949725 0.93264 0.915546 0.89847 0.8823 0.865814 0.849505 0.834299 0.818764 0.803487 0.78846 0.775276 0.761337
 1 0.9808 0.961339 0.941689 0.922541 0.903344 0.884345 0.866475 0.848429 0.830721 0.814581 0.798149 0.782194 0.76671 0.751693 0.737136
 1 0.977705 0.955356 0.933037 0.911606 0.890428 0.869833 0.849859 0.830524 0.811834 0.793789 0.776375 0.759579 0.743391 0.727782 0.712741
 1 0.973068 0.946458 0.920539 0.895478 0.871358 0.848209 0.826035 0.804821 0.784541 0.76516 0.74664 0.728942 0.712024 0.695847 0.680371
 1 0.965814 0.93287 0.901511 0.871832 0.843826 0.817443 0.792603 0.769217 0.747192 0.726435 0.706854 0.688364 0.670885 0.654339 0.638657
 1 0.95413 0.911574 0.87243 0.836522 0.803601 0.773394 0.745635 0.720084 0.696498 0.674673 0.654448 0.635622 0.618061 0.60167 0.586281
 1 0.934126 0.876576 0.826399 0.782522 0.743977 0.710046 0.679874 0.653021 0.628851 0.607086 0.587262 0.569139 0.552582 0.537227 0.523056
 1 0.918419 0.850258 0.793089 0.744894 0.703814 0.668623 0.638051 0.611388 0.587775 0.566814 0.54792 0.530872 0.515268 0.500989 0.487752
 1 0.895992 0.81433 0.749471 0.697329 0.654662 0.619354 0.58952 0.564093 0.541942 0.522546 0.505201 0.48966 0.475471 0.462524 0.450515
 1 0.862202 0.763593 0.69148 0.637249 0.595238 0.561933 0.534628 0.511862 0.492256 0.475225 0.460003 0.446377 0.433883 0.422464 0.411817
 1 0.80715 0.689665 0.614244 0.563065 0.526088 0.498016 0.475523 0.456697 0.440559 0.426261 0.413491 0.401814 0.391138 0.381201 0.371985

