**************************************************************
***  MERIS LUT-168: Aerosol transmittance                  ***
***                 for each of AOTs at 560nm [AOT560],    ***
***                 for each of 78 aerosol models [IAER],  ***
***                 & for each of 12 solar angles [SZA]    ***
**************************************************************

Aerosol optical thickness (560nm): AOT560
---------------------------------        

 0.0 0.1 0.2 0.3 0.4 0.5 0.6 0.7 0.8 0.9 1.0 1.1 1.2 1.3 1.4 1.5

12 Gaussian angles (deg): SZA
------------------------     

 2.84 17.64 28.77 36.19 43.61 51.03 58.46 65.88 69.59 73.30 77.01 80.72

Aerosol transmittance: [SZA x AOT560]
---------------------                

Aerosol model #42
 1 0.987198 0.973958 0.960424 0.946672 0.932732 0.919172 0.905578 0.891839 0.878204 0.86464 0.851148 0.838476 0.825449 0.812557 0.799794
 1 0.986007 0.971522 0.956656 0.942001 0.926987 0.912441 0.897626 0.882843 0.86886 0.854549 0.840369 0.827096 0.813502 0.800097 0.786872
 1 0.983568 0.96676 0.949604 0.932829 0.915792 0.89941 0.882869 0.866497 0.850292 0.835496 0.820134 0.805018 0.791758 0.777767 0.764139
 1 0.980817 0.961371 0.941711 0.922661 0.903502 0.885382 0.86729 0.849662 0.832519 0.815868 0.799713 0.784055 0.768882 0.754191 0.739966
 1 0.976645 0.953261 0.930235 0.907758 0.88594 0.864838 0.844482 0.824879 0.806027 0.787908 0.770504 0.753792 0.737743 0.722331 0.707527
 1 0.969986 0.940623 0.91234 0.885301 0.859563 0.835127 0.81196 0.790012 0.769223 0.749527 0.73086 0.713154 0.696348 0.68038 0.665193
 1 0.959039 0.920418 0.884452 0.851125 0.820308 0.791819 0.765464 0.741074 0.718438 0.697393 0.677825 0.659534 0.642411 0.626401 0.611313
 1 0.939875 0.886494 0.839395 0.797802 0.76104 0.72835 0.699151 0.673086 0.649491 0.62821 0.608739 0.590993 0.574592 0.559495 0.545416
 1 0.924593 0.8606 0.806287 0.760118 0.720437 0.68629 0.656433 0.63034 0.607117 0.586492 0.567826 0.550995 0.535537 0.521407 0.508271
 1 0.902545 0.824893 0.762536 0.712023 0.67038 0.635795 0.606414 0.581354 0.559436 0.540263 0.523061 0.507682 0.493599 0.480781 0.468858
 1 0.869005 0.774071 0.703816 0.650691 0.609282 0.576389 0.549446 0.526774 0.50743 0.490449 0.475453 0.461875 0.449582 0.438214 0.427743
 1 0.813897 0.699162 0.62487 0.574208 0.537598 0.50959 0.487274 0.46859 0.45264 0.438497 0.42592 0.414398 0.403904 0.394111 0.38506

