**************************************************************
***  MERIS LUT-168: Aerosol transmittance                  ***
***                 for each of AOTs at 560nm [AOT560],    ***
***                 for each of 78 aerosol models [IAER],  ***
***                 & for each of 12 solar angles [SZA]    ***
**************************************************************

Aerosol optical thickness (560nm): AOT560
---------------------------------        

 0.0 0.1 0.2 0.3 0.4 0.5 0.6 0.7 0.8 0.9 1.0 1.1 1.2 1.3 1.4 1.5

12 Gaussian angles (deg): SZA
------------------------     

 2.84 17.64 28.77 36.19 43.61 51.03 58.46 65.88 69.59 73.30 77.01 80.72

Aerosol transmittance: [SZA x AOT560]
---------------------                

Aerosol model #72
 1 0.98239 0.964459 0.946423 0.928401 0.910627 0.893054 0.875564 0.858388 0.841459 0.825484 0.80938 0.79359 0.779001 0.764206 0.749799
 1 0.980892 0.961489 0.941973 0.922868 0.903767 0.884866 0.866884 0.848847 0.831145 0.81377 0.797782 0.781455 0.765501 0.749908 0.736436
 1 0.977891 0.955741 0.933643 0.912204 0.890973 0.870154 0.850488 0.830936 0.811897 0.79335 0.775277 0.759768 0.743374 0.727533 0.712236
 1 0.97457 0.949377 0.924519 0.900718 0.877456 0.854992 0.833343 0.812518 0.792494 0.773256 0.754796 0.737062 0.72005 0.703708 0.688014
 1 0.969625 0.939977 0.911381 0.883966 0.857777 0.832813 0.809048 0.786441 0.764941 0.744494 0.725043 0.706535 0.688913 0.672124 0.656118
 1 0.961981 0.925789 0.891671 0.859644 0.829642 0.801556 0.775267 0.750645 0.727566 0.705911 0.685565 0.666425 0.64839 0.631374 0.615294
 1 0.949812 0.903807 0.861882 0.823726 0.788973 0.757266 0.7283 0.701735 0.67731 0.654836 0.634025 0.61476 0.596817 0.580108 0.564459
 1 0.929233 0.86812 0.815276 0.769455 0.729426 0.694346 0.663303 0.635756 0.611052 0.588851 0.568687 0.550292 0.533495 0.517959 0.503623
 1 0.913218 0.841526 0.781912 0.731979 0.689666 0.653559 0.62232 0.595135 0.571131 0.549845 0.5307 0.513432 0.497656 0.483219 0.469858
 1 0.890498 0.805455 0.73846 0.684805 0.641324 0.605357 0.575062 0.549268 0.526843 0.507201 0.489663 0.473937 0.459599 0.446504 0.434377
 1 0.856482 0.754867 0.681078 0.625877 0.58328 0.549559 0.52196 0.498929 0.479111 0.461862 0.44646 0.432644 0.419994 0.40841 0.397632
 1 0.801411 0.681554 0.605211 0.553534 0.516255 0.487914 0.465169 0.446107 0.42972 0.415197 0.402195 0.390315 0.379435 0.369324 0.359936

