**************************************************************
***  MERIS LUT-168: Aerosol transmittance                  ***
***                 for each of AOTs at 560nm [AOT560],    ***
***                 for each of 78 aerosol models [IAER],  ***
***                 & for each of 12 solar angles [SZA]    ***
**************************************************************

Aerosol optical thickness (560nm): AOT560
---------------------------------        

 0.0 0.1 0.2 0.3 0.4 0.5 0.6 0.7 0.8 0.9 1.0 1.1 1.2 1.3 1.4 1.5

12 Gaussian angles (deg): SZA
------------------------     

 2.84 17.64 28.77 36.19 43.61 51.03 58.46 65.88 69.59 73.30 77.01 80.72

Aerosol transmittance: [SZA x AOT560]
---------------------                

Aerosol model #52
 1 0.990401 0.980391 0.970053 0.959426 0.948908 0.938054 0.927442 0.916555 0.9056 0.895113 0.884308 0.873503 0.863259 0.852703 0.842196
 1 0.989384 0.978293 0.967035 0.955439 0.944013 0.932269 0.920398 0.909144 0.897428 0.886251 0.874777 0.863729 0.85269 0.84171 0.830426
 1 0.987374 0.97437 0.961176 0.947859 0.934479 0.921055 0.90759 0.894913 0.881811 0.868763 0.85673 0.844189 0.831763 0.819437 0.809018
 1 0.985089 0.969852 0.95455 0.939265 0.924097 0.909105 0.894334 0.879812 0.865564 0.851604 0.837944 0.824588 0.811542 0.798806 0.786379
 1 0.981564 0.962984 0.94457 0.926408 0.908601 0.891204 0.87425 0.857758 0.841739 0.826195 0.811123 0.796517 0.782369 0.768666 0.755396
 1 0.976028 0.952384 0.929356 0.907076 0.885604 0.864966 0.845159 0.826174 0.807988 0.790571 0.773894 0.757922 0.742623 0.727962 0.713906
 1 0.96693 0.935324 0.905418 0.877247 0.850769 0.825908 0.802574 0.780665 0.760082 0.740727 0.722508 0.705337 0.68913 0.673814 0.659315
 1 0.950993 0.906405 0.866066 0.829608 0.796633 0.766763 0.739636 0.714933 0.69237 0.671691 0.652677 0.635131 0.618883 0.603789 0.589718
 1 0.93822 0.884004 0.836556 0.79497 0.758402 0.726115 0.69747 0.671926 0.649026 0.628376 0.609658 0.592597 0.576964 0.562565 0.549241
 1 0.919601 0.852519 0.796487 0.749423 0.709597 0.675615 0.646357 0.62093 0.598625 0.578876 0.561232 0.545336 0.530901 0.517696 0.505535
 1 0.89068 0.806284 0.74063 0.688856 0.647377 0.613574 0.585543 0.561887 0.541591 0.523903 0.508269 0.494274 0.481607 0.470032 0.459365
 1 0.841311 0.734672 0.661216 0.60884 0.570047 0.540181 0.516321 0.496616 0.479868 0.465298 0.452373 0.440732 0.430116 0.420353 0.411294

