**************************************************************
***  MERIS LUT-168: Aerosol transmittance                  ***
***                 for each of AOTs at 560nm [AOT560],    ***
***                 for each of 78 aerosol models [IAER],  ***
***                 & for each of 12 solar angles [SZA]    ***
**************************************************************

Aerosol optical thickness (560nm): AOT560
---------------------------------        

 0.0 0.1 0.2 0.3 0.4 0.5 0.6 0.7 0.8 0.9 1.0 1.1 1.2 1.3 1.4 1.5

12 Gaussian angles (deg): SZA
------------------------     

 2.84 17.64 28.77 36.19 43.61 51.03 58.46 65.88 69.59 73.30 77.01 80.72

Aerosol transmittance: [SZA x AOT560]
---------------------                

Aerosol model #38
 1 0.98928 0.978111 0.966603 0.954956 0.943063 0.931041 0.919238 0.90726 0.895295 0.882966 0.871465 0.859613 0.847806 0.836662 0.825198
 1 0.988226 0.975923 0.963404 0.95056 0.937474 0.924835 0.911758 0.899175 0.886289 0.873423 0.861242 0.848739 0.836328 0.824004 0.812687
 1 0.986087 0.971626 0.957018 0.942146 0.927119 0.912711 0.89793 0.883173 0.869462 0.855248 0.841159 0.828607 0.815409 0.802486 0.789836
 1 0.983612 0.966713 0.94979 0.93272 0.915631 0.899584 0.883308 0.86735 0.85174 0.836495 0.821623 0.807137 0.793031 0.779313 0.765975
 1 0.979763 0.959265 0.938883 0.918815 0.899181 0.880055 0.861481 0.843485 0.826076 0.809255 0.793015 0.777346 0.762231 0.747654 0.733596
 1 0.973615 0.947477 0.922038 0.897499 0.873953 0.851435 0.829947 0.809466 0.789959 0.771384 0.753696 0.736846 0.720787 0.705472 0.690857
 1 0.963363 0.92835 0.89539 0.864567 0.835833 0.809081 0.784187 0.761 0.739379 0.719212 0.70034 0.682652 0.666081 0.65047 0.635747
 1 0.945139 0.895706 0.851611 0.812292 0.777286 0.745929 0.717865 0.692515 0.669539 0.648785 0.629706 0.612307 0.596167 0.58131 0.567415
 1 0.930412 0.870472 0.819079 0.77486 0.736726 0.703516 0.674396 0.648892 0.626076 0.605803 0.587384 0.570785 0.555495 0.541537 0.528527
 1 0.908985 0.835339 0.775485 0.726598 0.685963 0.652083 0.623135 0.598423 0.576862 0.557765 0.540828 0.52549 0.511627 0.498847 0.487027
 1 0.876068 0.784807 0.71646 0.664371 0.623635 0.590918 0.564184 0.541643 0.522444 0.505576 0.490724 0.477264 0.465121 0.453875 0.44355
 1 0.821407 0.709462 0.636245 0.585805 0.549308 0.521346 0.499126 0.480653 0.464745 0.450857 0.438357 0.427095 0.416695 0.407144 0.398189

