**************************************************************
***  MERIS LUT-168: Aerosol transmittance                  ***
***                 for each of AOTs at 560nm [AOT560],    ***
***                 for each of 78 aerosol models [IAER],  ***
***                 & for each of 12 solar angles [SZA]    ***
**************************************************************

Aerosol optical thickness (560nm): AOT560
---------------------------------        

 0.0 0.1 0.2 0.3 0.4 0.5 0.6 0.7 0.8 0.9 1.0 1.1 1.2 1.3 1.4 1.5

12 Gaussian angles (deg): SZA
------------------------     

 2.84 17.64 28.77 36.19 43.61 51.03 58.46 65.88 69.59 73.30 77.01 80.72

Aerosol transmittance: [SZA x AOT560]
---------------------                

Aerosol model #48
 1 0.982436 0.9646 0.946619 0.928964 0.911449 0.894012 0.876827 0.859877 0.843164 0.827432 0.811527 0.795919 0.780599 0.767039 0.752804
 1 0.980973 0.96179 0.942497 0.923636 0.904783 0.886127 0.868404 0.850598 0.83311 0.815932 0.800184 0.784028 0.768226 0.752764 0.739641
 1 0.978134 0.956269 0.934466 0.91333 0.892382 0.871827 0.852441 0.833119 0.814284 0.795917 0.777997 0.762844 0.746603 0.730908 0.715767
 1 0.974944 0.950131 0.925634 0.902198 0.879261 0.856533 0.835715 0.815138 0.795332 0.776305 0.758009 0.740446 0.723562 0.707339 0.691772
 1 0.970176 0.941031 0.912885 0.885868 0.860027 0.835367 0.811866 0.789487 0.768182 0.747904 0.728596 0.710211 0.692691 0.675991 0.660058
 1 0.962758 0.927207 0.893616 0.86202 0.83237 0.804574 0.778517 0.754083 0.731154 0.709617 0.689366 0.6703 0.652322 0.635347 0.619298
 1 0.950864 0.905636 0.864291 0.826569 0.792135 0.760658 0.731866 0.705416 0.681106 0.658651 0.637864 0.61862 0.600672 0.583962 0.568293
 1 0.930583 0.870347 0.818071 0.772624 0.732818 0.697883 0.666902 0.639391 0.614677 0.592462 0.572257 0.553881 0.53698 0.521444 0.507016
 1 0.91471 0.843906 0.784816 0.735191 0.69303 0.657 0.625765 0.598566 0.574511 0.553178 0.533967 0.516646 0.500804 0.486316 0.472897
 1 0.892106 0.807918 0.741359 0.688028 0.644499 0.608536 0.578186 0.552333 0.529824 0.510114 0.492495 0.476707 0.4623 0.449153 0.43697
 1 0.858153 0.757275 0.683795 0.628682 0.586047 0.552261 0.524557 0.501441 0.481523 0.464201 0.448719 0.434847 0.422189 0.410511 0.399726
 1 0.80304 0.683702 0.607466 0.555733 0.518329 0.489877 0.467028 0.447864 0.431404 0.41681 0.40376 0.391832 0.38092 0.370776 0.361367

