**************************************************************
***  MERIS LUT-168: Aerosol transmittance                  ***
***                 for each of AOTs at 560nm [AOT560],    ***
***                 for each of 78 aerosol models [IAER],  ***
***                 & for each of 12 solar angles [SZA]    ***
**************************************************************

Aerosol optical thickness (560nm): AOT560
---------------------------------        

 0.0 0.1 0.2 0.3 0.4 0.5 0.6 0.7 0.8 0.9 1.0 1.1 1.2 1.3 1.4 1.5

12 Gaussian angles (deg): SZA
------------------------     

 2.84 17.64 28.77 36.19 43.61 51.03 58.46 65.88 69.59 73.30 77.01 80.72

Aerosol transmittance: [SZA x AOT560]
---------------------                

Aerosol model #13
 1 0.991438 0.982511 0.973271 0.963739 0.954254 0.944424 0.934395 0.924801 0.915096 0.90517 0.895004 0.884914 0.875348 0.865406 0.855462
 1 0.990595 0.980724 0.970642 0.9602 0.949842 0.939136 0.92825 0.917874 0.90701 0.896614 0.885867 0.875104 0.864939 0.854406 0.843906
 1 0.988862 0.977185 0.965312 0.953076 0.941017 0.928632 0.916124 0.904286 0.891974 0.879645 0.86826 0.856307 0.844409 0.833939 0.822724
 1 0.986824 0.973063 0.959163 0.944936 0.931022 0.917153 0.903275 0.889556 0.876029 0.862719 0.849645 0.836818 0.824252 0.811951 0.799916
 1 0.983595 0.966722 0.94972 0.932778 0.916019 0.899529 0.883364 0.867566 0.852159 0.837158 0.822573 0.808406 0.794655 0.781314 0.768376
 1 0.9783 0.956373 0.934692 0.913491 0.892904 0.873005 0.85383 0.835394 0.817694 0.800716 0.784438 0.768836 0.753881 0.739543 0.725792
 1 0.969183 0.939037 0.910155 0.882752 0.85689 0.832555 0.809691 0.788226 0.768064 0.749113 0.731302 0.714517 0.69868 0.68375 0.669602
 1 0.952355 0.908367 0.868393 0.832298 0.799699 0.770312 0.743676 0.719565 0.69756 0.677422 0.659059 0.642043 0.626403 0.611796 0.598264
 1 0.938386 0.883989 0.836564 0.795169 0.759127 0.727399 0.699565 0.674738 0.652714 0.632788 0.614894 0.598484 0.58357 0.569724 0.557001
 1 0.917641 0.849473 0.793272 0.74659 0.70767 0.674657 0.646612 0.622225 0.601074 0.582231 0.565561 0.550389 0.53673 0.524079 0.512522
 1 0.885254 0.799008 0.733582 0.682957 0.643172 0.610971 0.584628 0.562451 0.543331 0.526748 0.511941 0.498743 0.486647 0.475648 0.46538
 1 0.830681 0.722642 0.651103 0.601351 0.565212 0.537566 0.515366 0.49707 0.481297 0.467614 0.455272 0.44423 0.433997 0.424667 0.415878

