**************************************************************
***  MERIS LUT-168: Aerosol transmittance                  ***
***                 for each of AOTs at 560nm [AOT560],    ***
***                 for each of 78 aerosol models [IAER],  ***
***                 & for each of 12 solar angles [SZA]    ***
**************************************************************

Aerosol optical thickness (560nm): AOT560
---------------------------------        

 0.0 0.1 0.2 0.3 0.4 0.5 0.6 0.7 0.8 0.9 1.0 1.1 1.2 1.3 1.4 1.5

12 Gaussian angles (deg): SZA
------------------------     

 2.84 17.64 28.77 36.19 43.61 51.03 58.46 65.88 69.59 73.30 77.01 80.72

Aerosol transmittance: [SZA x AOT560]
---------------------                

Aerosol model #18
 1 0.988139 0.975869 0.963241 0.95075 0.938211 0.925362 0.912816 0.899565 0.887566 0.875152 0.862611 0.850261 0.837997 0.826392 0.814527
 1 0.987078 0.973726 0.960014 0.946501 0.932603 0.919168 0.905393 0.891595 0.878624 0.865204 0.851854 0.839473 0.826618 0.813892 0.802146
 1 0.984932 0.969423 0.953846 0.938095 0.922268 0.90708 0.891618 0.876244 0.861893 0.847146 0.832576 0.819533 0.80591 0.792594 0.779594
 1 0.982456 0.964511 0.946627 0.928687 0.910811 0.893994 0.87704 0.860461 0.84428 0.828514 0.813166 0.798245 0.783743 0.769661 0.755988
 1 0.97861 0.957068 0.935736 0.914803 0.894382 0.87454 0.855316 0.836729 0.818784 0.801478 0.784798 0.768728 0.753253 0.738349 0.723997
 1 0.972468 0.945289 0.918909 0.893522 0.869214 0.846013 0.823913 0.802885 0.782888 0.763874 0.745794 0.728592 0.712217 0.69662 0.681751
 1 0.962203 0.926137 0.892242 0.860592 0.83114 0.803756 0.778314 0.754643 0.732596 0.712063 0.692861 0.67488 0.658062 0.642219 0.627338
 1 0.943867 0.893333 0.848318 0.808238 0.772605 0.740725 0.71223 0.68651 0.663219 0.642201 0.622884 0.605285 0.588958 0.573944 0.559897
 1 0.928997 0.867921 0.815643 0.770737 0.732067 0.698427 0.668959 0.643171 0.620108 0.599629 0.581021 0.56426 0.548815 0.534722 0.521579
 1 0.907327 0.832525 0.771876 0.72243 0.681391 0.647209 0.618172 0.593106 0.571373 0.55211 0.535029 0.519546 0.505554 0.492643 0.480794
 1 0.87404 0.781678 0.712726 0.660286 0.619327 0.586439 0.559563 0.536881 0.517549 0.50054 0.485555 0.471958 0.459686 0.448311 0.437866
 1 0.8189 0.706121 0.632645 0.582114 0.545555 0.517506 0.49518 0.476581 0.460528 0.446496 0.433847 0.422443 0.411903 0.402224 0.393145

