**************************************************************
***  MERIS LUT-168: Aerosol transmittance                  ***
***                 for each of AOTs at 560nm [AOT560],    ***
***                 for each of 78 aerosol models [IAER],  ***
***                 & for each of 12 solar angles [SZA]    ***
**************************************************************

Aerosol optical thickness (560nm): AOT560
---------------------------------        

 0.0 0.1 0.2 0.3 0.4 0.5 0.6 0.7 0.8 0.9 1.0 1.1 1.2 1.3 1.4 1.5

12 Gaussian angles (deg): SZA
------------------------     

 2.84 17.64 28.77 36.19 43.61 51.03 58.46 65.88 69.59 73.30 77.01 80.72

Aerosol transmittance: [SZA x AOT560]
---------------------                

Aerosol model #65
 1 0.986405 0.972334 0.957989 0.943384 0.928902 0.914293 0.899683 0.885485 0.871183 0.856997 0.842929 0.82964 0.816407 0.803242 0.789568
 1 0.985116 0.969773 0.954176 0.938534 0.922857 0.907222 0.891907 0.876669 0.861649 0.846874 0.832363 0.817269 0.804187 0.790539 0.777194
 1 0.982497 0.964645 0.946492 0.92877 0.910859 0.893628 0.876335 0.859279 0.842457 0.827327 0.811682 0.796446 0.781617 0.76719 0.753169
 1 0.979567 0.958949 0.938207 0.918283 0.898448 0.879076 0.860211 0.841881 0.824099 0.806871 0.790195 0.774062 0.758465 0.743388 0.728817
 1 0.975162 0.950446 0.926228 0.90269 0.879925 0.857983 0.836881 0.816616 0.797175 0.778536 0.760671 0.74355 0.72714 0.711408 0.696322
 1 0.968215 0.937353 0.907794 0.879666 0.852997 0.827763 0.803911 0.781375 0.760081 0.73995 0.720907 0.702879 0.685794 0.669587 0.654194
 1 0.956943 0.916674 0.879394 0.845008 0.813329 0.78414 0.757219 0.73235 0.709331 0.687979 0.668124 0.649625 0.632336 0.61614 0.600929
 1 0.937481 0.882383 0.834028 0.791504 0.754031 0.72081 0.69121 0.664809 0.640974 0.619376 0.599861 0.581895 0.565482 0.550228 0.536153
 1 0.922087 0.856415 0.800947 0.753944 0.713682 0.679085 0.648921 0.62257 0.599175 0.578392 0.559626 0.542595 0.527171 0.512895 0.499795
 1 0.900004 0.820772 0.757399 0.706192 0.664098 0.629173 0.599576 0.57433 0.552298 0.533011 0.515742 0.500285 0.486158 0.473283 0.461329
 1 0.866548 0.770218 0.699141 0.645493 0.603771 0.570643 0.543433 0.520761 0.50122 0.484275 0.469119 0.455582 0.443158 0.431824 0.421244
 1 0.811711 0.69587 0.621002 0.570002 0.533183 0.505052 0.482624 0.463867 0.447831 0.433631 0.420977 0.409403 0.39884 0.388999 0.379886

