**************************************************************
***  MERIS LUT-168: Aerosol transmittance                  ***
***                 for each of AOTs at 560nm [AOT560],    ***
***                 for each of 78 aerosol models [IAER],  ***
***                 & for each of 12 solar angles [SZA]    ***
**************************************************************

Aerosol optical thickness (560nm): AOT560
---------------------------------        

 0.0 0.1 0.2 0.3 0.4 0.5 0.6 0.7 0.8 0.9 1.0 1.1 1.2 1.3 1.4 1.5

12 Gaussian angles (deg): SZA
------------------------     

 2.84 17.64 28.77 36.19 43.61 51.03 58.46 65.88 69.59 73.30 77.01 80.72

Aerosol transmittance: [SZA x AOT560]
---------------------                

Aerosol model #74
 1 0.980809 0.961372 0.942 0.922722 0.903779 0.885073 0.866689 0.84864 0.830928 0.813549 0.79777 0.7816 0.765875 0.750593 0.735747
 1 0.979211 0.958325 0.937426 0.91703 0.896776 0.87684 0.857228 0.838957 0.820491 0.802444 0.784803 0.768852 0.752414 0.736403 0.720805
 1 0.976129 0.952382 0.928854 0.906097 0.883709 0.861868 0.840564 0.821143 0.801075 0.781902 0.763292 0.747078 0.730217 0.71396 0.698296
 1 0.972694 0.94583 0.919505 0.894361 0.869927 0.846431 0.823868 0.802236 0.7815 0.761635 0.742628 0.724411 0.706982 0.690272 0.674258
 1 0.967597 0.936192 0.906073 0.877336 0.85 0.824043 0.799415 0.776061 0.753915 0.732909 0.712977 0.694053 0.676073 0.658979 0.642712
 1 0.959768 0.921732 0.886069 0.852742 0.821646 0.792637 0.765568 0.740288 0.716653 0.694528 0.673785 0.654307 0.635992 0.618742 0.602467
 1 0.947381 0.899459 0.856005 0.816622 0.780877 0.748365 0.718744 0.691644 0.666782 0.643948 0.622842 0.603335 0.585193 0.568322 0.55254
 1 0.926564 0.863519 0.809251 0.762358 0.721522 0.685816 0.654293 0.626365 0.601364 0.57886 0.558565 0.540018 0.523089 0.507452 0.493028
 1 0.910435 0.836852 0.775921 0.724951 0.68205 0.645338 0.613814 0.586329 0.562095 0.540618 0.521323 0.503926 0.488047 0.473519 0.460086
 1 0.88762 0.800733 0.732637 0.67822 0.634197 0.597843 0.567266 0.541243 0.518642 0.498845 0.481183 0.465342 0.450912 0.437729 0.425533
 1 0.853559 0.750357 0.675644 0.619877 0.576911 0.542916 0.515111 0.491899 0.471933 0.454541 0.439021 0.425087 0.412342 0.400662 0.389808
 1 0.798555 0.677466 0.600522 0.548498 0.510983 0.482435 0.459504 0.440274 0.423723 0.409056 0.395912 0.38391 0.372912 0.362703 0.353221

