**************************************************************
***  MERIS LUT-168: Aerosol transmittance                  ***
***                 for each of AOTs at 560nm [AOT560],    ***
***                 for each of 78 aerosol models [IAER],  ***
***                 & for each of 12 solar angles [SZA]    ***
**************************************************************

Aerosol optical thickness (560nm): AOT560
---------------------------------        

 0.0 0.1 0.2 0.3 0.4 0.5 0.6 0.7 0.8 0.9 1.0 1.1 1.2 1.3 1.4 1.5

12 Gaussian angles (deg): SZA
------------------------     

 2.84 17.64 28.77 36.19 43.61 51.03 58.46 65.88 69.59 73.30 77.01 80.72

Aerosol transmittance: [SZA x AOT560]
---------------------                

Aerosol model #34
 1 0.990687 0.980954 0.970888 0.96052 0.950208 0.939738 0.929159 0.918347 0.907855 0.897191 0.886545 0.875593 0.865342 0.854793 0.844279
 1 0.989745 0.979047 0.968055 0.956666 0.945508 0.933868 0.922616 0.911128 0.89934 0.888182 0.876741 0.865325 0.853927 0.84336 0.832312
 1 0.987826 0.975102 0.962204 0.948973 0.935954 0.922661 0.909295 0.896616 0.883543 0.870506 0.85866 0.846285 0.834109 0.822141 0.810387
 1 0.985589 0.970626 0.955653 0.940278 0.925449 0.910498 0.895724 0.881174 0.866871 0.852843 0.839104 0.825658 0.812522 0.799695 0.787169
 1 0.982085 0.963815 0.945528 0.927412 0.909582 0.892117 0.875066 0.858459 0.842319 0.826648 0.811452 0.796728 0.782475 0.768671 0.755312
 1 0.976436 0.952893 0.929803 0.90737 0.885702 0.864852 0.84484 0.825663 0.807306 0.789746 0.772947 0.756882 0.741514 0.726804 0.71272
 1 0.966915 0.934966 0.904615 0.875997 0.84912 0.823928 0.800338 0.77825 0.757554 0.738145 0.719922 0.702787 0.686653 0.671433 0.657047
 1 0.949787 0.903962 0.862605 0.825373 0.791978 0.761817 0.734687 0.710018 0.687688 0.66722 0.648427 0.631286 0.615314 0.600617 0.586825
 1 0.935819 0.879704 0.830983 0.788628 0.751817 0.719492 0.691142 0.665914 0.643523 0.623315 0.60515 0.588535 0.573299 0.559415 0.546436
 1 0.915282 0.845561 0.788231 0.7407 0.701093 0.66755 0.639043 0.614304 0.592827 0.573741 0.556831 0.541486 0.527646 0.514867 0.503169
 1 0.883421 0.795886 0.729463 0.678063 0.637641 0.604954 0.578189 0.555548 0.536295 0.519354 0.504492 0.49101 0.478898 0.467667 0.457399
 1 0.82982 0.720709 0.648206 0.597698 0.560962 0.532861 0.510332 0.491756 0.475781 0.461904 0.449422 0.43823 0.427889 0.418433 0.409553

