**************************************************************
***  MERIS LUT-168: Aerosol transmittance                  ***
***                 for each of AOTs at 560nm [AOT560],    ***
***                 for each of 78 aerosol models [IAER],  ***
***                 & for each of 12 solar angles [SZA]    ***
**************************************************************

Aerosol optical thickness (560nm): AOT560
---------------------------------        

 0.0 0.1 0.2 0.3 0.4 0.5 0.6 0.7 0.8 0.9 1.0 1.1 1.2 1.3 1.4 1.5

12 Gaussian angles (deg): SZA
------------------------     

 2.84 17.64 28.77 36.19 43.61 51.03 58.46 65.88 69.59 73.30 77.01 80.72

Aerosol transmittance: [SZA x AOT560]
---------------------                

Aerosol model #39
 1 0.988831 0.977211 0.965291 0.953025 0.94085 0.928572 0.916158 0.903737 0.891303 0.878861 0.867008 0.854849 0.842753 0.831473 0.81987
 1 0.987745 0.974963 0.961973 0.948674 0.935153 0.922082 0.908608 0.895072 0.882376 0.869174 0.856642 0.843837 0.831146 0.818564 0.807268
 1 0.985545 0.970554 0.955432 0.940074 0.924589 0.909728 0.894542 0.879411 0.865307 0.850764 0.836375 0.823467 0.809991 0.79681 0.783928
 1 0.983006 0.965525 0.948047 0.930462 0.912898 0.896369 0.87967 0.86332 0.847348 0.831769 0.816592 0.801824 0.787464 0.773507 0.759952
 1 0.979065 0.957914 0.936927 0.916303 0.896161 0.876573 0.857579 0.839203 0.82145 0.804319 0.787799 0.771878 0.756537 0.741757 0.727516
 1 0.972791 0.945911 0.919811 0.894687 0.870625 0.847653 0.825766 0.804935 0.785121 0.766277 0.748352 0.731295 0.715055 0.699581 0.684826
 1 0.962361 0.926502 0.892833 0.861415 0.832184 0.805017 0.779775 0.756298 0.734434 0.714062 0.695018 0.677186 0.660491 0.644776 0.629967
 1 0.943889 0.893508 0.84869 0.808825 0.773397 0.741722 0.713408 0.68787 0.664751 0.643875 0.624708 0.60723 0.591033 0.576123 0.562188
 1 0.929006 0.868083 0.815997 0.771293 0.732811 0.699359 0.67007 0.644432 0.621527 0.601178 0.582709 0.566062 0.55074 0.536747 0.523713
 1 0.9074 0.83277 0.772307 0.723031 0.682163 0.648123 0.619086 0.594303 0.572565 0.553567 0.536485 0.521241 0.507254 0.494552 0.482715
 1 0.874293 0.78212 0.713314 0.660988 0.620136 0.58737 0.560605 0.538052 0.518833 0.501953 0.487078 0.473601 0.461431 0.450163 0.439809
 1 0.819473 0.706838 0.633299 0.582918 0.546423 0.518478 0.496257 0.477665 0.46185 0.447933 0.435406 0.424107 0.413674 0.404007 0.395099

