**************************************************************
***  MERIS LUT-168: Aerosol transmittance                  ***
***                 for each of AOTs at 560nm [AOT560],    ***
***                 for each of 78 aerosol models [IAER],  ***
***                 & for each of 12 solar angles [SZA]    ***
**************************************************************

Aerosol optical thickness (560nm): AOT560
---------------------------------        

 0.0 0.1 0.2 0.3 0.4 0.5 0.6 0.7 0.8 0.9 1.0 1.1 1.2 1.3 1.4 1.5

12 Gaussian angles (deg): SZA
------------------------     

 2.84 17.64 28.77 36.19 43.61 51.03 58.46 65.88 69.59 73.30 77.01 80.72

Aerosol transmittance: [SZA x AOT560]
---------------------                

Aerosol model #17
 1 0.988932 0.977442 0.965772 0.953815 0.941631 0.929817 0.917883 0.905903 0.893672 0.881545 0.870022 0.858432 0.846351 0.835218 0.823758
 1 0.987918 0.975386 0.962689 0.949714 0.936536 0.923807 0.910679 0.897486 0.885134 0.872252 0.860059 0.84755 0.835137 0.822815 0.811515
 1 0.985861 0.971245 0.956523 0.941573 0.926494 0.912035 0.897228 0.882456 0.868723 0.854499 0.840405 0.827909 0.814719 0.800804 0.78772
 1 0.983479 0.9665 0.949524 0.932422 0.915315 0.899262 0.882981 0.866149 0.851414 0.83617 0.821304 0.806821 0.792722 0.779006 0.765669
 1 0.979763 0.959284 0.938925 0.91888 0.899265 0.880154 0.861592 0.843602 0.826197 0.809377 0.793134 0.77746 0.76234 0.747754 0.733689
 1 0.973795 0.947792 0.922452 0.897981 0.87448 0.851989 0.830513 0.810033 0.790519 0.771929 0.754222 0.73735 0.721266 0.705923 0.691279
 1 0.963759 0.928993 0.896186 0.865452 0.836764 0.810025 0.785127 0.761917 0.74026 0.72006 0.701141 0.683401 0.666792 0.651128 0.636402
 1 0.945711 0.896577 0.852638 0.813388 0.778408 0.747035 0.718948 0.693549 0.670635 0.649716 0.63057 0.613126 0.596919 0.582016 0.568058
 1 0.931002 0.871344 0.820088 0.775922 0.737805 0.704571 0.675558 0.64987 0.62699 0.606675 0.588187 0.571542 0.556183 0.542177 0.529101
 1 0.909494 0.836079 0.776435 0.727498 0.687025 0.652985 0.624167 0.599258 0.577658 0.558498 0.541513 0.526107 0.512192 0.499344 0.487563
 1 0.876347 0.785249 0.717005 0.664992 0.624297 0.591576 0.564832 0.542245 0.523007 0.506074 0.491172 0.477642 0.465446 0.454133 0.443757
 1 0.821264 0.709464 0.636415 0.586081 0.549643 0.521797 0.499438 0.480925 0.464952 0.451009 0.438439 0.427122 0.416657 0.407058 0.398047

