**************************************************************
***  MERIS LUT-168: Aerosol transmittance                  ***
***                 for each of AOTs at 560nm [AOT560],    ***
***                 for each of 78 aerosol models [IAER],  ***
***                 & for each of 12 solar angles [SZA]    ***
**************************************************************

Aerosol optical thickness (560nm): AOT560
---------------------------------        

 0.0 0.1 0.2 0.3 0.4 0.5 0.6 0.7 0.8 0.9 1.0 1.1 1.2 1.3 1.4 1.5

12 Gaussian angles (deg): SZA
------------------------     

 2.84 17.64 28.77 36.19 43.61 51.03 58.46 65.88 69.59 73.30 77.01 80.72

Aerosol transmittance: [SZA x AOT560]
---------------------                

Aerosol model #7
 1 0.993534 0.986735 0.979758 0.972618 0.965318 0.957597 0.950174 0.942361 0.934786 0.926868 0.919163 0.911196 0.903159 0.895538 0.887418
 1 0.992879 0.98537 0.977668 0.969613 0.961636 0.953255 0.945119 0.93657 0.92831 0.919696 0.910982 0.902733 0.89407 0.885352 0.877193
 1 0.991514 0.982541 0.973364 0.963782 0.954352 0.944857 0.935131 0.925 0.915443 0.905531 0.895565 0.886197 0.87641 0.866619 0.857764
 1 0.989881 0.979186 0.968302 0.956985 0.945929 0.934417 0.923601 0.911944 0.901205 0.890128 0.879161 0.868322 0.857623 0.847076 0.836689
 1 0.987249 0.973966 0.960419 0.946764 0.933109 0.919531 0.906088 0.892824 0.879772 0.866954 0.85439 0.84209 0.830062 0.818311 0.806838
 1 0.982833 0.965195 0.947492 0.929944 0.912688 0.895812 0.879375 0.863408 0.847933 0.832958 0.818481 0.804498 0.790998 0.777968 0.765392
 1 0.975022 0.950071 0.925743 0.902292 0.879849 0.858457 0.838129 0.81884 0.800553 0.783208 0.766776 0.751196 0.736406 0.722355 0.70899
 1 0.960146 0.922413 0.887425 0.855251 0.82577 0.798775 0.774106 0.751452 0.730694 0.711535 0.693819 0.677509 0.662269 0.648152 0.634878
 1 0.947493 0.899868 0.857388 0.819668 0.786233 0.756477 0.729899 0.706226 0.684803 0.665559 0.647946 0.63197 0.617187 0.603647 0.590993
 1 0.928373 0.867249 0.815592 0.771976 0.73483 0.70316 0.675704 0.651942 0.630914 0.612414 0.595829 0.580781 0.567171 0.55462 0.543117
 1 0.897826 0.81839 0.756588 0.707906 0.668841 0.637157 0.610866 0.588579 0.569528 0.552799 0.538092 0.5248 0.512855 0.501819 0.491736
 1 0.845193 0.742538 0.672703 0.623336 0.586942 0.55888 0.536542 0.518051 0.502232 0.488516 0.476251 0.465276 0.455182 0.44597 0.437345

